Frequency (MHz),Level (dBm)
54.0,-102.5
54.025,-102.0
54.05,-106.5
54.075,-99.8
54.1,-104.3
54.125,-100.2
54.15,-103.6
54.175,-102.9
54.2,-98.5
54.225,-102.4
54.25,-103.2
54.275,-104.3
54.3,-106.6
54.325,-104.1
54.35,-103.2
54.375,-101.5
54.4,-104.2
54.425,-105.0
54.45,-103.6
54.475,-100.4
54.5,-106.8
54.525,-103.1
54.55,-108.6
54.575,-103.4
54.6,-97.7
54.625,-106.9
54.65,-103.8
54.675,-101.8
54.7,-106.8
54.725,-107.4
54.75,-107.1
54.775,-103.0
54.8,-106.1
54.825,-108.2
54.85,-106.2
54.875,-104.4
54.9,-103.2
54.925,-101.2
54.95,-104.2
54.975,-105.4
55.0,-108.3
55.025,-102.7
55.05,-105.9
55.075,-105.0
55.1,-103.3
55.125,-103.0
55.15,-101.2
55.175,-99.0
55.2,-109.2
55.225,-104.1
55.25,-106.3
55.275,-108.9
55.3,-105.6
55.325,-103.3
55.35,-104.0
55.375,-99.5
55.4,-101.6
55.425,-107.4
55.45,-101.8
55.475,-108.9
55.5,-110.8
55.525,-102.1
55.55,-109.6
55.575,-107.7
55.6,-101.8
55.625,-106.0
55.65,-104.8
55.675,-103.0
55.7,-105.4
55.725,-102.6
55.75,-108.1
55.775,-99.6
55.8,-103.0
55.825,-103.9
55.85,-104.2
55.875,-105.0
55.9,-106.8
55.925,-103.7
55.95,-104.3
55.975,-105.4
56.0,-106.5
56.025,-103.2
56.05,-100.3
56.075,-108.5
56.1,-106.7
56.125,-103.5
56.15,-105.7
56.175,-104.6
56.2,-107.0
56.225,-102.6
56.25,-101.9
56.275,-103.9
56.3,-109.1
56.325,-106.7
56.35,-104.8
56.375,-105.3
56.4,-105.6
56.425,-109.0
56.45,-104.7
56.475,-105.9
56.5,-102.9
56.525,-105.3
56.55,-101.8
56.575,-103.3
56.6,-102.2
56.625,-105.8
56.65,-104.8
56.675,-105.2
56.7,-104.7
56.725,-104.9
56.75,-104.8
56.775,-103.8
56.8,-102.2
56.825,-105.3
56.85,-105.0
56.875,-102.5
56.9,-109.0
56.925,-103.8
56.95,-104.0
56.975,-105.4
57.0,-106.8
57.025,-104.9
57.05,-101.8
57.075,-105.7
57.1,-103.9
57.125,-105.0
57.15,-106.7
57.175,-104.1
57.2,-105.4
57.225,-107.3
57.25,-105.6
57.275,-104.3
57.3,-103.7
57.325,-106.5
57.35,-104.9
57.375,-101.0
57.4,-105.5
57.425,-107.5
57.45,-104.8
57.475,-105.4
57.5,-103.7
57.525,-104.9
57.55,-104.2
57.575,-101.2
57.6,-106.5
57.625,-104.1
57.65,-104.3
57.675,-102.4
57.7,-104.1
57.725,-103.8
57.75,-99.6
57.775,-106.1
57.8,-105.5
57.825,-104.0
57.85,-103.1
57.875,-101.6
57.9,-107.7
57.925,-106.2
57.95,-104.5
57.975,-105.0
58.0,-109.1
58.025,-108.3
58.05,-103.1
58.075,-100.1
58.1,-106.7
58.125,-103.9
58.15,-105.4
58.175,-103.4
58.2,-102.6
58.225,-99.5
58.25,-106.7
58.275,-105.5
58.3,-101.6
58.325,-102.3
58.35,-104.8
58.375,-104.0
58.4,-106.4
58.425,-105.9
58.45,-107.4
58.475,-103.8
58.5,-106.5
58.525,-101.2
58.55,-110.2
58.575,-100.4
58.6,-110.4
58.625,-102.5
58.65,-102.5
58.675,-99.4
58.7,-107.4
58.725,-103.4
58.75,-101.8
58.775,-104.0
58.8,-105.8
58.825,-109.3
58.85,-108.4
58.875,-106.4
58.9,-107.1
58.925,-101.5
58.95,-107.6
58.975,-101.1
59.0,-101.1
59.025,-98.8
59.05,-97.4
59.075,-100.3
59.1,-101.9
59.125,-101.5
59.15,-103.9
59.175,-106.4
59.2,-102.7
59.225,-106.1
59.25,-108.9
59.275,-105.8
59.3,-106.9
59.325,-107.7
59.35,-106.7
59.375,-107.5
59.4,-105.3
59.425,-105.1
59.45,-106.8
59.475,-101.7
59.5,-106.6
59.525,-104.7
59.55,-100.0
59.575,-111.5
59.6,-101.2
59.625,-107.5
59.65,-105.1
59.675,-96.9
59.7,-107.8
59.725,-99.5
59.75,-97.3
59.775,-102.1
59.8,-103.6
59.825,-110.0
59.85,-108.4
59.875,-99.0
59.9,-101.6
59.925,-98.2
59.95,-96.3
59.975,-101.1
60.0,-100.5
60.025,-96.0
60.05,-104.7
60.075,-101.0
60.1,-106.3
60.125,-98.5
60.15,-99.7
60.175,-97.5
60.2,-103.3
60.225,-97.3
60.25,-99.6
60.275,-96.1
60.3,-101.7
60.325,-95.3
60.35,-95.9
60.375,-101.3
60.4,-97.3
60.425,-95.7
60.45,-95.3
60.475,-95.5
60.5,-95.3
60.525,-98.2
60.55,-98.6
60.575,-100.7
60.6,-100.7
60.625,-102.3
60.65,-105.9
60.675,-99.4
60.7,-96.8
60.725,-99.4
60.75,-94.9
60.775,-101.3
60.8,-94.7
60.825,-98.3
60.85,-103.0
60.875,-102.2
60.9,-97.3
60.925,-100.7
60.95,-97.7
60.975,-95.8
61.0,-93.8
61.025,-100.3
61.05,-103.1
61.075,-102.2
61.1,-103.0
61.125,-102.4
61.15,-99.6
61.175,-103.7
61.2,-99.4
61.225,-99.5
61.25,-103.5
61.275,-98.7
61.3,-98.5
61.325,-103.0
61.35,-102.0
61.375,-96.2
61.4,-98.4
61.425,-105.3
61.45,-98.5
61.475,-95.5
61.5,-106.4
61.525,-101.3
61.55,-99.0
61.575,-98.2
61.6,-94.0
61.625,-93.8
61.65,-97.7
61.675,-98.9
61.7,-93.5
61.725,-95.9
61.75,-95.1
61.775,-92.9
61.8,-98.1
61.825,-92.5
61.85,-93.7
61.875,-91.9
61.9,-94.9
61.925,-96.4
61.95,-93.3
61.975,-95.1
62.0,-95.8
62.025,-95.7
62.05,-101.0
62.075,-95.8
62.1,-99.2
62.125,-99.7
62.15,-97.9
62.175,-95.9
62.2,-100.3
62.225,-94.1
62.25,-98.4
62.275,-98.2
62.3,-98.6
62.325,-100.0
62.35,-94.6
62.375,-95.7
62.4,-98.3
62.425,-101.1
62.45,-96.5
62.475,-98.6
62.5,-98.8
62.525,-102.2
62.55,-96.4
62.575,-97.1
62.6,-99.8
62.625,-96.8
62.65,-95.5
62.675,-98.9
62.7,-92.9
62.725,-98.1
62.75,-98.3
62.775,-92.3
62.8,-93.0
62.825,-101.0
62.85,-93.9
62.875,-94.2
62.9,-95.6
62.925,-92.4
62.95,-89.4
62.975,-91.4
63.0,-91.1
63.025,-93.1
63.05,-91.0
63.075,-88.4
63.1,-92.1
63.125,-91.3
63.15,-91.5
63.175,-90.2
63.2,-89.9
63.225,-88.7
63.25,-94.1
63.275,-91.8
63.3,-89.6
63.325,-92.1
63.35,-91.9
63.375,-97.4
63.4,-99.7
63.425,-105.0
63.45,-93.9
63.475,-94.7
63.5,-96.5
63.525,-98.7
63.55,-94.9
63.575,-96.6
63.6,-97.5
63.625,-99.1
63.65,-96.4
63.675,-94.6
63.7,-98.3
63.725,-95.5
63.75,-96.1
63.775,-96.4
63.8,-99.2
63.825,-95.2
63.85,-96.6
63.875,-97.4
63.9,-97.1
63.925,-97.0
63.95,-94.8
63.975,-103.2
64.0,-99.2
64.0,-102.5
64.025,-102.0
64.05,-106.5
64.075,-99.8
64.1,-104.3
64.125,-100.2
64.15,-103.6
64.175,-102.9
64.2,-98.5
64.225,-102.4
64.25,-103.2
64.275,-104.3
64.3,-106.6
64.325,-104.1
64.35,-103.2
64.375,-101.5
64.4,-104.2
64.425,-105.0
64.45,-103.6
64.475,-100.4
64.5,-106.8
64.525,-103.1
64.55,-108.6
64.575,-103.4
64.6,-97.7
64.625,-106.9
64.65,-103.8
64.675,-101.8
64.7,-106.8
64.725,-107.4
64.75,-107.1
64.775,-103.0
64.8,-106.1
64.825,-108.2
64.85,-106.2
64.875,-104.4
64.9,-103.2
64.925,-101.2
64.95,-104.2
64.975,-105.4
65.0,-108.3
65.025,-102.7
65.05,-105.9
65.075,-105.0
65.1,-103.3
65.125,-103.0
65.15,-101.2
65.175,-99.0
65.2,-109.2
65.225,-104.1
65.25,-106.3
65.275,-108.9
65.3,-105.6
65.325,-103.3
65.35,-104.0
65.375,-99.5
65.4,-101.6
65.425,-107.4
65.45,-101.8
65.475,-108.9
65.5,-110.8
65.525,-102.1
65.55,-109.6
65.575,-107.7
65.6,-101.8
65.625,-106.0
65.65,-104.8
65.675,-103.0
65.7,-105.4
65.725,-102.6
65.75,-108.1
65.775,-99.6
65.8,-103.0
65.825,-103.9
65.85,-104.2
65.875,-105.0
65.9,-106.8
65.925,-103.7
65.95,-104.3
65.975,-105.4
66.0,-106.5
66.025,-103.2
66.05,-100.3
66.075,-108.5
66.1,-106.7
66.125,-103.5
66.15,-105.7
66.175,-104.6
66.2,-107.0
66.225,-102.6
66.25,-101.9
66.275,-103.9
66.3,-109.1
66.325,-106.7
66.35,-104.8
66.375,-105.3
66.4,-105.6
66.425,-109.0
66.45,-104.7
66.475,-105.9
66.5,-102.9
66.525,-105.3
66.55,-101.8
66.575,-103.3
66.6,-102.2
66.625,-105.8
66.65,-104.8
66.675,-105.2
66.7,-104.7
66.725,-104.9
66.75,-104.8
66.775,-103.8
66.8,-102.2
66.825,-105.3
66.85,-105.0
66.875,-102.5
66.9,-109.0
66.925,-103.8
66.95,-104.0
66.975,-105.4
67.0,-106.8
67.025,-104.9
67.05,-101.8
67.075,-105.7
67.1,-103.9
67.125,-105.0
67.15,-106.7
67.175,-104.1
67.2,-105.4
67.225,-107.3
67.25,-105.6
67.275,-104.3
67.3,-103.7
67.325,-106.5
67.35,-104.9
67.375,-101.0
67.4,-105.5
67.425,-107.5
67.45,-104.8
67.475,-105.4
67.5,-103.7
67.525,-104.9
67.55,-104.2
67.575,-101.2
67.6,-106.5
67.625,-104.1
67.65,-104.3
67.675,-102.4
67.7,-104.1
67.725,-103.8
67.75,-99.6
67.775,-106.1
67.8,-105.5
67.825,-104.0
67.85,-103.1
67.875,-101.6
67.9,-107.7
67.925,-106.2
67.95,-104.5
67.975,-105.0
68.0,-109.1
68.025,-108.3
68.05,-103.1
68.075,-100.1
68.1,-106.7
68.125,-103.9
68.15,-105.4
68.175,-103.4
68.2,-102.6
68.225,-99.5
68.25,-106.7
68.275,-105.5
68.3,-101.6
68.325,-102.3
68.35,-104.8
68.375,-104.0
68.4,-106.4
68.425,-105.9
68.45,-107.4
68.475,-103.8
68.5,-106.5
68.525,-101.2
68.55,-110.2
68.575,-100.4
68.6,-110.4
68.625,-102.5
68.65,-102.5
68.675,-99.4
68.7,-107.4
68.725,-103.4
68.75,-101.8
68.775,-104.0
68.8,-105.8
68.825,-109.3
68.85,-108.4
68.875,-106.4
68.9,-107.1
68.925,-101.5
68.95,-107.6
68.975,-101.1
69.0,-101.1
69.025,-98.8
69.05,-97.4
69.075,-100.3
69.1,-101.9
69.125,-101.5
69.15,-103.9
69.175,-106.4
69.2,-102.7
69.225,-106.1
69.25,-108.9
69.275,-105.8
69.3,-106.9
69.325,-107.7
69.35,-106.7
69.375,-107.5
69.4,-105.3
69.425,-105.1
69.45,-106.8
69.475,-101.7
69.5,-106.6
69.525,-104.7
69.55,-100.0
69.575,-111.5
69.6,-101.2
69.625,-107.5
69.65,-105.1
69.675,-96.9
69.7,-107.8
69.725,-99.5
69.75,-97.3
69.775,-102.1
69.8,-103.6
69.825,-110.0
69.85,-108.4
69.875,-99.0
69.9,-101.6
69.925,-98.2
69.95,-96.3
69.975,-101.1
70.0,-100.5
70.025,-96.0
70.05,-104.7
70.075,-101.0
70.1,-106.3
70.125,-98.5
70.15,-99.7
70.175,-97.5
70.2,-103.3
70.225,-97.3
70.25,-99.6
70.275,-96.1
70.3,-101.7
70.325,-95.3
70.35,-95.9
70.375,-101.3
70.4,-97.3
70.425,-95.7
70.45,-95.3
70.475,-95.5
70.5,-95.3
70.525,-98.2
70.55,-98.6
70.575,-100.7
70.6,-100.7
70.625,-102.3
70.65,-105.9
70.675,-99.4
70.7,-96.8
70.725,-99.4
70.75,-94.9
70.775,-101.3
70.8,-94.7
70.825,-98.3
70.85,-103.0
70.875,-102.2
70.9,-97.3
70.925,-100.7
70.95,-97.7
70.975,-95.8
71.0,-93.8
71.025,-100.3
71.05,-103.1
71.075,-102.2
71.1,-103.0
71.125,-102.4
71.15,-99.6
71.175,-103.7
71.2,-99.4
71.225,-99.5
71.25,-103.5
71.275,-98.7
71.3,-98.5
71.325,-103.0
71.35,-102.0
71.375,-96.2
71.4,-98.4
71.425,-105.3
71.45,-98.5
71.475,-95.5
71.5,-106.4
71.525,-101.3
71.55,-99.0
71.575,-98.2
71.6,-94.0
71.625,-93.8
71.65,-97.7
71.675,-98.9
71.7,-93.5
71.725,-95.9
71.75,-95.1
71.775,-92.9
71.8,-98.1
71.825,-92.5
71.85,-93.7
71.875,-91.9
71.9,-94.9
71.925,-96.4
71.95,-93.3
71.975,-95.1
72.0,-95.8
72.025,-95.7
72.05,-101.0
72.075,-95.8
72.1,-99.2
72.125,-99.7
72.15,-97.9
72.175,-95.9
72.2,-100.3
72.225,-94.1
72.25,-98.4
72.275,-98.2
72.3,-98.6
72.325,-100.0
72.35,-94.6
72.375,-95.7
72.4,-98.3
72.425,-101.1
72.45,-96.5
72.475,-98.6
72.5,-98.8
72.525,-102.2
72.55,-96.4
72.575,-97.1
72.6,-99.8
72.625,-96.8
72.65,-95.5
72.675,-98.9
72.7,-92.9
72.725,-98.1
72.75,-98.3
72.775,-92.3
72.8,-93.0
72.825,-101.0
72.85,-93.9
72.875,-94.2
72.9,-95.6
72.925,-92.4
72.95,-89.4
72.975,-91.4
73.0,-91.1
73.025,-93.1
73.05,-91.0
73.075,-88.4
73.1,-92.1
73.125,-91.3
73.15,-91.5
73.175,-90.2
73.2,-89.9
73.225,-88.7
73.25,-94.1
73.275,-91.8
73.3,-89.6
73.325,-92.1
73.35,-91.9
73.375,-97.4
73.4,-99.7
73.425,-105.0
73.45,-93.9
73.475,-94.7
73.5,-96.5
73.525,-98.7
73.55,-94.9
73.575,-96.6
73.6,-97.5
73.625,-99.1
73.65,-96.4
73.675,-94.6
73.7,-98.3
73.725,-95.5
73.75,-96.1
73.775,-96.4
73.8,-99.2
73.825,-95.2
73.85,-96.6
73.875,-97.4
73.9,-97.1
73.925,-97.0
73.95,-94.8
73.975,-103.2
74.0,-99.2
74.0,-102.5
74.025,-102.0
74.05,-106.5
74.075,-99.8
74.1,-104.3
74.125,-100.2
74.15,-103.6
74.175,-102.9
74.2,-98.5
74.225,-102.4
74.25,-103.2
74.275,-104.3
74.3,-106.6
74.325,-104.1
74.35,-103.2
74.375,-101.5
74.4,-104.2
74.425,-105.0
74.45,-103.6
74.475,-100.4
74.5,-106.8
74.525,-103.1
74.55,-108.6
74.575,-103.4
74.6,-97.7
74.625,-106.9
74.65,-103.8
74.675,-101.8
74.7,-106.8
74.725,-107.4
74.75,-107.1
74.775,-103.0
74.8,-106.1
74.825,-108.2
74.85,-106.2
74.875,-104.4
74.9,-103.2
74.925,-101.2
74.95,-104.2
74.975,-105.4
75.0,-108.3
75.025,-102.7
75.05,-105.9
75.075,-105.0
75.1,-103.3
75.125,-103.0
75.15,-101.2
75.175,-99.0
75.2,-109.2
75.225,-104.1
75.25,-106.3
75.275,-108.9
75.3,-105.6
75.325,-103.3
75.35,-104.0
75.375,-99.5
75.4,-101.6
75.425,-107.4
75.45,-101.8
75.475,-108.9
75.5,-110.8
75.525,-102.1
75.55,-109.6
75.575,-107.7
75.6,-101.8
75.625,-106.0
75.65,-104.8
75.675,-103.0
75.7,-105.4
75.725,-102.6
75.75,-108.1
75.775,-99.6
75.8,-103.0
75.825,-103.9
75.85,-104.2
75.875,-105.0
75.9,-106.8
75.925,-103.7
75.95,-104.3
75.975,-105.4
76.0,-106.5
76.025,-103.2
76.05,-100.3
76.075,-108.5
76.1,-106.7
76.125,-103.5
76.15,-105.7
76.175,-104.6
76.2,-107.0
76.225,-102.6
76.25,-101.9
76.275,-103.9
76.3,-109.1
76.325,-106.7
76.35,-104.8
76.375,-105.3
76.4,-105.6
76.425,-109.0
76.45,-104.7
76.475,-105.9
76.5,-102.9
76.525,-105.3
76.55,-101.8
76.575,-103.3
76.6,-102.2
76.625,-105.8
76.65,-104.8
76.675,-105.2
76.7,-104.7
76.725,-104.9
76.75,-104.8
76.775,-103.8
76.8,-102.2
76.825,-105.3
76.85,-105.0
76.875,-102.5
76.9,-109.0
76.925,-103.8
76.95,-104.0
76.975,-105.4
77.0,-106.8
77.025,-104.9
77.05,-101.8
77.075,-105.7
77.1,-103.9
77.125,-105.0
77.15,-106.7
77.175,-104.1
77.2,-105.4
77.225,-107.3
77.25,-105.6
77.275,-104.3
77.3,-103.7
77.325,-106.5
77.35,-104.9
77.375,-101.0
77.4,-105.5
77.425,-107.5
77.45,-104.8
77.475,-105.4
77.5,-103.7
77.525,-104.9
77.55,-104.2
77.575,-101.2
77.6,-106.5
77.625,-104.1
77.65,-104.3
77.675,-102.4
77.7,-104.1
77.725,-103.8
77.75,-99.6
77.775,-106.1
77.8,-105.5
77.825,-104.0
77.85,-103.1
77.875,-101.6
77.9,-107.7
77.925,-106.2
77.95,-104.5
77.975,-105.0
78.0,-109.1
78.025,-108.3
78.05,-103.1
78.075,-100.1
78.1,-106.7
78.125,-103.9
78.15,-105.4
78.175,-103.4
78.2,-102.6
78.225,-99.5
78.25,-106.7
78.275,-105.5
78.3,-101.6
78.325,-102.3
78.35,-104.8
78.375,-104.0
78.4,-106.4
78.425,-105.9
78.45,-107.4
78.475,-103.8
78.5,-106.5
78.525,-101.2
78.55,-110.2
78.575,-100.4
78.6,-110.4
78.625,-102.5
78.65,-102.5
78.675,-99.4
78.7,-107.4
78.725,-103.4
78.75,-101.8
78.775,-104.0
78.8,-105.8
78.825,-109.3
78.85,-108.4
78.875,-106.4
78.9,-107.1
78.925,-101.5
78.95,-107.6
78.975,-101.1
79.0,-101.1
79.025,-98.8
79.05,-97.4
79.075,-100.3
79.1,-101.9
79.125,-101.5
79.15,-103.9
79.175,-106.4
79.2,-102.7
79.225,-106.1
79.25,-108.9
79.275,-105.8
79.3,-106.9
79.325,-107.7
79.35,-106.7
79.375,-107.5
79.4,-105.3
79.425,-105.1
79.45,-106.8
79.475,-101.7
79.5,-106.6
79.525,-104.7
79.55,-100.0
79.575,-111.5
79.6,-101.2
79.625,-107.5
79.65,-105.1
79.675,-96.9
79.7,-107.8
79.725,-99.5
79.75,-97.3
79.775,-102.1
79.8,-103.6
79.825,-110.0
79.85,-108.4
79.875,-99.0
79.9,-101.6
79.925,-98.2
79.95,-96.3
79.975,-101.1
80.0,-100.5
80.025,-96.0
80.05,-104.7
80.075,-101.0
80.1,-106.3
80.125,-98.5
80.15,-99.7
80.175,-97.5
80.2,-103.3
80.225,-97.3
80.25,-99.6
80.275,-96.1
80.3,-101.7
80.325,-95.3
80.35,-95.9
80.375,-101.3
80.4,-97.3
80.425,-95.7
80.45,-95.3
80.475,-95.5
80.5,-95.3
80.525,-98.2
80.55,-98.6
80.575,-100.7
80.6,-100.7
80.625,-102.3
80.65,-105.9
80.675,-99.4
80.7,-96.8
80.725,-99.4
80.75,-94.9
80.775,-101.3
80.8,-94.7
80.825,-98.3
80.85,-103.0
80.875,-102.2
80.9,-97.3
80.925,-100.7
80.95,-97.7
80.975,-95.8
81.0,-93.8
81.025,-100.3
81.05,-103.1
81.075,-102.2
81.1,-103.0
81.125,-102.4
81.15,-99.6
81.175,-103.7
81.2,-99.4
81.225,-99.5
81.25,-103.5
81.275,-98.7
81.3,-98.5
81.325,-103.0
81.35,-102.0
81.375,-96.2
81.4,-98.4
81.425,-105.3
81.45,-98.5
81.475,-95.5
81.5,-106.4
81.525,-101.3
81.55,-99.0
81.575,-98.2
81.6,-94.0
81.625,-93.8
81.65,-97.7
81.675,-98.9
81.7,-93.5
81.725,-95.9
81.75,-95.1
81.775,-92.9
81.8,-98.1
81.825,-92.5
81.85,-93.7
81.875,-91.9
81.9,-94.9
81.925,-96.4
81.95,-93.3
81.975,-95.1
82.0,-95.8
82.025,-95.7
82.05,-101.0
82.075,-95.8
82.1,-99.2
82.125,-99.7
82.15,-97.9
82.175,-95.9
82.2,-100.3
82.225,-94.1
82.25,-98.4
82.275,-98.2
82.3,-98.6
82.325,-100.0
82.35,-94.6
82.375,-95.7
82.4,-98.3
82.425,-101.1
82.45,-96.5
82.475,-98.6
82.5,-98.8
82.525,-102.2
82.55,-96.4
82.575,-97.1
82.6,-99.8
82.625,-96.8
82.65,-95.5
82.675,-98.9
82.7,-92.9
82.725,-98.1
82.75,-98.3
82.775,-92.3
82.8,-93.0
82.825,-101.0
82.85,-93.9
82.875,-94.2
82.9,-95.6
82.925,-92.4
82.95,-89.4
82.975,-91.4
83.0,-91.1
83.025,-93.1
83.05,-91.0
83.075,-88.4
83.1,-92.1
83.125,-91.3
83.15,-91.5
83.175,-90.2
83.2,-89.9
83.225,-88.7
83.25,-94.1
83.275,-91.8
83.3,-89.6
83.325,-92.1
83.35,-91.9
83.375,-97.4
83.4,-99.7
83.425,-105.0
83.45,-93.9
83.475,-94.7
83.5,-96.5
83.525,-98.7
83.55,-94.9
83.575,-96.6
83.6,-97.5
83.625,-99.1
83.65,-96.4
83.675,-94.6
83.7,-98.3
83.725,-95.5
83.75,-96.1
83.775,-96.4
83.8,-99.2
83.825,-95.2
83.85,-96.6
83.875,-97.4
83.9,-97.1
83.925,-97.0
83.95,-94.8
83.975,-103.2
84.0,-99.2
84.0,-102.5
84.025,-102.0
84.05,-106.5
84.075,-99.8
84.1,-104.3
84.125,-100.2
84.15,-103.6
84.175,-102.9
84.2,-98.5
84.225,-102.4
84.25,-103.2
84.275,-104.3
84.3,-106.6
84.325,-104.1
84.35,-103.2
84.375,-101.5
84.4,-104.2
84.425,-105.0
84.45,-103.6
84.475,-100.4
84.5,-106.8
84.525,-103.1
84.55,-108.6
84.575,-103.4
84.6,-97.7
84.625,-106.9
84.65,-103.8
84.675,-101.8
84.7,-106.8
84.725,-107.4
84.75,-107.1
84.775,-103.0
84.8,-106.1
84.825,-108.2
84.85,-106.2
84.875,-104.4
84.9,-103.2
84.925,-101.2
84.95,-104.2
84.975,-105.4
85.0,-108.3
85.025,-102.7
85.05,-105.9
85.075,-105.0
85.1,-103.3
85.125,-103.0
85.15,-101.2
85.175,-99.0
85.2,-109.2
85.225,-104.1
85.25,-106.3
85.275,-108.9
85.3,-105.6
85.325,-103.3
85.35,-104.0
85.375,-99.5
85.4,-101.6
85.425,-107.4
85.45,-101.8
85.475,-108.9
85.5,-110.8
85.525,-102.1
85.55,-109.6
85.575,-107.7
85.6,-101.8
85.625,-106.0
85.65,-104.8
85.675,-103.0
85.7,-105.4
85.725,-102.6
85.75,-108.1
85.775,-99.6
85.8,-103.0
85.825,-103.9
85.85,-104.2
85.875,-105.0
85.9,-106.8
85.925,-103.7
85.95,-104.3
85.975,-105.4
86.0,-106.5
86.025,-103.2
86.05,-100.3
86.075,-108.5
86.1,-106.7
86.125,-103.5
86.15,-105.7
86.175,-104.6
86.2,-107.0
86.225,-102.6
86.25,-101.9
86.275,-103.9
86.3,-109.1
86.325,-106.7
86.35,-104.8
86.375,-105.3
86.4,-105.6
86.425,-109.0
86.45,-104.7
86.475,-105.9
86.5,-102.9
86.525,-105.3
86.55,-101.8
86.575,-103.3
86.6,-102.2
86.625,-105.8
86.65,-104.8
86.675,-105.2
86.7,-104.7
86.725,-104.9
86.75,-104.8
86.775,-103.8
86.8,-102.2
86.825,-105.3
86.85,-105.0
86.875,-102.5
86.9,-109.0
86.925,-103.8
86.95,-104.0
86.975,-105.4
87.0,-106.8
87.025,-104.9
87.05,-101.8
87.075,-105.7
87.1,-103.9
87.125,-105.0
87.15,-106.7
87.175,-104.1
87.2,-105.4
87.225,-107.3
87.25,-105.6
87.275,-104.3
87.3,-103.7
87.325,-106.5
87.35,-104.9
87.375,-101.0
87.4,-105.5
87.425,-107.5
87.45,-104.8
87.475,-105.4
87.5,-103.7
87.525,-104.9
87.55,-104.2
87.575,-101.2
87.6,-106.5
87.625,-104.1
87.65,-104.3
87.675,-102.4
87.7,-104.1
87.725,-103.8
87.75,-99.6
87.775,-106.1
87.8,-105.5
87.825,-104.0
87.85,-103.1
87.875,-101.6
87.9,-107.7
87.925,-106.2
87.95,-104.5
87.975,-105.0
88.0,-109.1
88.025,-108.3
88.05,-103.1
88.075,-100.1
88.1,-106.7
88.125,-103.9
88.15,-105.4
88.175,-103.4
88.2,-102.6
88.225,-99.5
88.25,-106.7
88.275,-105.5
88.3,-101.6
88.325,-102.3
88.35,-104.8
88.375,-104.0
88.4,-106.4
88.425,-105.9
88.45,-107.4
88.475,-103.8
88.5,-106.5
88.525,-101.2
88.55,-110.2
88.575,-100.4
88.6,-110.4
88.625,-102.5
88.65,-102.5
88.675,-99.4
88.7,-107.4
88.725,-103.4
88.75,-101.8
88.775,-104.0
88.8,-105.8
88.825,-109.3
88.85,-108.4
88.875,-106.4
88.9,-107.1
88.925,-101.5
88.95,-107.6
88.975,-101.1
89.0,-101.1
89.025,-98.8
89.05,-97.4
89.075,-100.3
89.1,-101.9
89.125,-101.5
89.15,-103.9
89.175,-106.4
89.2,-102.7
89.225,-106.1
89.25,-108.9
89.275,-105.8
89.3,-106.9
89.325,-107.7
89.35,-106.7
89.375,-107.5
89.4,-105.3
89.425,-105.1
89.45,-106.8
89.475,-101.7
89.5,-106.6
89.525,-104.7
89.55,-100.0
89.575,-111.5
89.6,-101.2
89.625,-107.5
89.65,-105.1
89.675,-96.9
89.7,-107.8
89.725,-99.5
89.75,-97.3
89.775,-102.1
89.8,-103.6
89.825,-110.0
89.85,-108.4
89.875,-99.0
89.9,-101.6
89.925,-98.2
89.95,-96.3
89.975,-101.1
90.0,-100.5
90.025,-96.0
90.05,-104.7
90.075,-101.0
90.1,-106.3
90.125,-98.5
90.15,-99.7
90.175,-97.5
90.2,-103.3
90.225,-97.3
90.25,-99.6
90.275,-96.1
90.3,-101.7
90.325,-95.3
90.35,-95.9
90.375,-101.3
90.4,-97.3
90.425,-95.7
90.45,-95.3
90.475,-95.5
90.5,-95.3
90.525,-98.2
90.55,-98.6
90.575,-100.7
90.6,-100.7
90.625,-102.3
90.65,-105.9
90.675,-99.4
90.7,-96.8
90.725,-99.4
90.75,-94.9
90.775,-101.3
90.8,-94.7
90.825,-98.3
90.85,-103.0
90.875,-102.2
90.9,-97.3
90.925,-100.7
90.95,-97.7
90.975,-95.8
91.0,-93.8
91.025,-100.3
91.05,-103.1
91.075,-102.2
91.1,-103.0
91.125,-102.4
91.15,-99.6
91.175,-103.7
91.2,-99.4
91.225,-99.5
91.25,-103.5
91.275,-98.7
91.3,-98.5
91.325,-103.0
91.35,-102.0
91.375,-96.2
91.4,-98.4
91.425,-105.3
91.45,-98.5
91.475,-95.5
91.5,-106.4
91.525,-101.3
91.55,-99.0
91.575,-98.2
91.6,-94.0
91.625,-93.8
91.65,-97.7
91.675,-98.9
91.7,-93.5
91.725,-95.9
91.75,-95.1
91.775,-92.9
91.8,-98.1
91.825,-92.5
91.85,-93.7
91.875,-91.9
91.9,-94.9
91.925,-96.4
91.95,-93.3
91.975,-95.1
92.0,-95.8
92.025,-95.7
92.05,-101.0
92.075,-95.8
92.1,-99.2
92.125,-99.7
92.15,-97.9
92.175,-95.9
92.2,-100.3
92.225,-94.1
92.25,-98.4
92.275,-98.2
92.3,-98.6
92.325,-100.0
92.35,-94.6
92.375,-95.7
92.4,-98.3
92.425,-101.1
92.45,-96.5
92.475,-98.6
92.5,-98.8
92.525,-102.2
92.55,-96.4
92.575,-97.1
92.6,-99.8
92.625,-96.8
92.65,-95.5
92.675,-98.9
92.7,-92.9
92.725,-98.1
92.75,-98.3
92.775,-92.3
92.8,-93.0
92.825,-101.0
92.85,-93.9
92.875,-94.2
92.9,-95.6
92.925,-92.4
92.95,-89.4
92.975,-91.4
93.0,-91.1
93.025,-93.1
93.05,-91.0
93.075,-88.4
93.1,-92.1
93.125,-91.3
93.15,-91.5
93.175,-90.2
93.2,-89.9
93.225,-88.7
93.25,-94.1
93.275,-91.8
93.3,-89.6
93.325,-92.1
93.35,-91.9
93.375,-97.4
93.4,-99.7
93.425,-105.0
93.45,-93.9
93.475,-94.7
93.5,-96.5
93.525,-98.7
93.55,-94.9
93.575,-96.6
93.6,-97.5
93.625,-99.1
93.65,-96.4
93.675,-94.6
93.7,-98.3
93.725,-95.5
93.75,-96.1
93.775,-96.4
93.8,-99.2
93.825,-95.2
93.85,-96.6
93.875,-97.4
93.9,-97.1
93.925,-97.0
93.95,-94.8
93.975,-103.2
94.0,-99.2
94.0,-102.5
94.025,-102.0
94.05,-106.5
94.075,-99.8
94.1,-104.3
94.125,-100.2
94.15,-103.6
94.175,-102.9
94.2,-98.5
94.225,-102.4
94.25,-103.2
94.275,-104.3
94.3,-106.6
94.325,-104.1
94.35,-103.2
94.375,-101.5
94.4,-104.2
94.425,-105.0
94.45,-103.6
94.475,-100.4
94.5,-106.8
94.525,-103.1
94.55,-108.6
94.575,-103.4
94.6,-97.7
94.625,-106.9
94.65,-103.8
94.675,-101.8
94.7,-106.8
94.725,-107.4
94.75,-107.1
94.775,-103.0
94.8,-106.1
94.825,-108.2
94.85,-106.2
94.875,-104.4
94.9,-103.2
94.925,-101.2
94.95,-104.2
94.975,-105.4
95.0,-108.3
95.025,-102.7
95.05,-105.9
95.075,-105.0
95.1,-103.3
95.125,-103.0
95.15,-101.2
95.175,-99.0
95.2,-109.2
95.225,-104.1
95.25,-106.3
95.275,-108.9
95.3,-105.6
95.325,-103.3
95.35,-104.0
95.375,-99.5
95.4,-101.6
95.425,-107.4
95.45,-101.8
95.475,-108.9
95.5,-110.8
95.525,-102.1
95.55,-109.6
95.575,-107.7
95.6,-101.8
95.625,-106.0
95.65,-104.8
95.675,-103.0
95.7,-105.4
95.725,-102.6
95.75,-108.1
95.775,-99.6
95.8,-103.0
95.825,-103.9
95.85,-104.2
95.875,-105.0
95.9,-106.8
95.925,-103.7
95.95,-104.3
95.975,-105.4
96.0,-106.5
96.025,-103.2
96.05,-100.3
96.075,-108.5
96.1,-106.7
96.125,-103.5
96.15,-105.7
96.175,-104.6
96.2,-107.0
96.225,-102.6
96.25,-101.9
96.275,-103.9
96.3,-109.1
96.325,-106.7
96.35,-104.8
96.375,-105.3
96.4,-105.6
96.425,-109.0
96.45,-104.7
96.475,-105.9
96.5,-102.9
96.525,-105.3
96.55,-101.8
96.575,-103.3
96.6,-102.2
96.625,-105.8
96.65,-104.8
96.675,-105.2
96.7,-104.7
96.725,-104.9
96.75,-104.8
96.775,-103.8
96.8,-102.2
96.825,-105.3
96.85,-105.0
96.875,-102.5
96.9,-109.0
96.925,-103.8
96.95,-104.0
96.975,-105.4
97.0,-106.8
97.025,-104.9
97.05,-101.8
97.075,-105.7
97.1,-103.9
97.125,-105.0
97.15,-106.7
97.175,-104.1
97.2,-105.4
97.225,-107.3
97.25,-105.6
97.275,-104.3
97.3,-103.7
97.325,-106.5
97.35,-104.9
97.375,-101.0
97.4,-105.5
97.425,-107.5
97.45,-104.8
97.475,-105.4
97.5,-103.7
97.525,-104.9
97.55,-104.2
97.575,-101.2
97.6,-106.5
97.625,-104.1
97.65,-104.3
97.675,-102.4
97.7,-104.1
97.725,-103.8
97.75,-99.6
97.775,-106.1
97.8,-105.5
97.825,-104.0
97.85,-103.1
97.875,-101.6
97.9,-107.7
97.925,-106.2
97.95,-104.5
97.975,-105.0
98.0,-109.1
98.025,-108.3
98.05,-103.1
98.075,-100.1
98.1,-106.7
98.125,-103.9
98.15,-105.4
98.175,-103.4
98.2,-102.6
98.225,-99.5
98.25,-106.7
98.275,-105.5
98.3,-101.6
98.325,-102.3
98.35,-104.8
98.375,-104.0
98.4,-106.4
98.425,-105.9
98.45,-107.4
98.475,-103.8
98.5,-106.5
98.525,-101.2
98.55,-110.2
98.575,-100.4
98.6,-110.4
98.625,-102.5
98.65,-102.5
98.675,-99.4
98.7,-107.4
98.725,-103.4
98.75,-101.8
98.775,-104.0
98.8,-105.8
98.825,-109.3
98.85,-108.4
98.875,-106.4
98.9,-107.1
98.925,-101.5
98.95,-107.6
98.975,-101.1
99.0,-101.1
99.025,-98.8
99.05,-97.4
99.075,-100.3
99.1,-101.9
99.125,-101.5
99.15,-103.9
99.175,-106.4
99.2,-102.7
99.225,-106.1
99.25,-108.9
99.275,-105.8
99.3,-106.9
99.325,-107.7
99.35,-106.7
99.375,-107.5
99.4,-105.3
99.425,-105.1
99.45,-106.8
99.475,-101.7
99.5,-106.6
99.525,-104.7
99.55,-100.0
99.575,-111.5
99.6,-101.2
99.625,-107.5
99.65,-105.1
99.675,-96.9
99.7,-107.8
99.725,-99.5
99.75,-97.3
99.775,-102.1
99.8,-103.6
99.825,-110.0
99.85,-108.4
99.875,-99.0
99.9,-101.6
99.925,-98.2
99.95,-96.3
99.975,-101.1
100.0,-100.5
100.025,-96.0
100.05,-104.7
100.075,-101.0
100.1,-106.3
100.125,-98.5
100.15,-99.7
100.175,-97.5
100.2,-103.3
100.225,-97.3
100.25,-99.6
100.275,-96.1
100.3,-101.7
100.325,-95.3
100.35,-95.9
100.375,-101.3
100.4,-97.3
100.425,-95.7
100.45,-95.3
100.475,-95.5
100.5,-95.3
100.525,-98.2
100.55,-98.6
100.575,-100.7
100.6,-100.7
100.625,-102.3
100.65,-105.9
100.675,-99.4
100.7,-96.8
100.725,-99.4
100.75,-94.9
100.775,-101.3
100.8,-94.7
100.825,-98.3
100.85,-103.0
100.875,-102.2
100.9,-97.3
100.925,-100.7
100.95,-97.7
100.975,-95.8
101.0,-93.8
101.025,-100.3
101.05,-103.1
101.075,-102.2
101.1,-103.0
101.125,-102.4
101.15,-99.6
101.175,-103.7
101.2,-99.4
101.225,-99.5
101.25,-103.5
101.275,-98.7
101.3,-98.5
101.325,-103.0
101.35,-102.0
101.375,-96.2
101.4,-98.4
101.425,-105.3
101.45,-98.5
101.475,-95.5
101.5,-106.4
101.525,-101.3
101.55,-99.0
101.575,-98.2
101.6,-94.0
101.625,-93.8
101.65,-97.7
101.675,-98.9
101.7,-93.5
101.725,-95.9
101.75,-95.1
101.775,-92.9
101.8,-98.1
101.825,-92.5
101.85,-93.7
101.875,-91.9
101.9,-94.9
101.925,-96.4
101.95,-93.3
101.975,-95.1
102.0,-95.8
102.025,-95.7
102.05,-101.0
102.075,-95.8
102.1,-99.2
102.125,-99.7
102.15,-97.9
102.175,-95.9
102.2,-100.3
102.225,-94.1
102.25,-98.4
102.275,-98.2
102.3,-98.6
102.325,-100.0
102.35,-94.6
102.375,-95.7
102.4,-98.3
102.425,-101.1
102.45,-96.5
102.475,-98.6
102.5,-98.8
102.525,-102.2
102.55,-96.4
102.575,-97.1
102.6,-99.8
102.625,-96.8
102.65,-95.5
102.675,-98.9
102.7,-92.9
102.725,-98.1
102.75,-98.3
102.775,-92.3
102.8,-93.0
102.825,-101.0
102.85,-93.9
102.875,-94.2
102.9,-95.6
102.925,-92.4
102.95,-89.4
102.975,-91.4
103.0,-91.1
103.025,-93.1
103.05,-91.0
103.075,-88.4
103.1,-92.1
103.125,-91.3
103.15,-91.5
103.175,-90.2
103.2,-89.9
103.225,-88.7
103.25,-94.1
103.275,-91.8
103.3,-89.6
103.325,-92.1
103.35,-91.9
103.375,-97.4
103.4,-99.7
103.425,-105.0
103.45,-93.9
103.475,-94.7
103.5,-96.5
103.525,-98.7
103.55,-94.9
103.575,-96.6
103.6,-97.5
103.625,-99.1
103.65,-96.4
103.675,-94.6
103.7,-98.3
103.725,-95.5
103.75,-96.1
103.775,-96.4
103.8,-99.2
103.825,-95.2
103.85,-96.6
103.875,-97.4
103.9,-97.1
103.925,-97.0
103.95,-94.8
103.975,-103.2
104.0,-99.2
104.0,-102.5
104.025,-106.5
104.05,-104.3
104.075,-103.6
104.1,-98.5
104.125,-103.2
104.15,-106.6
104.175,-103.2
104.2,-104.2
104.225,-103.6
104.25,-106.8
104.275,-108.6
104.3,-97.7
104.325,-103.8
104.35,-106.8
104.375,-107.1
104.4,-106.1
104.425,-106.2
104.45,-103.2
104.475,-104.2
104.5,-108.3
104.525,-105.9
104.55,-103.3
104.575,-101.2
104.6,-109.2
104.625,-106.3
104.65,-105.6
104.675,-104.0
104.7,-101.6
104.725,-101.8
104.75,-110.8
104.775,-109.6
104.8,-101.8
104.825,-104.8
104.85,-105.4
104.875,-108.1
104.9,-103.0
104.925,-104.2
104.95,-106.8
104.975,-104.3
105.0,-106.5
105.025,-100.3
105.05,-106.7
105.075,-105.7
105.1,-107.0
105.125,-101.9
105.15,-109.1
105.175,-104.8
105.2,-105.6
105.225,-104.7
105.25,-102.9
105.275,-101.8
105.3,-102.2
105.325,-104.8
105.35,-104.7
105.375,-104.8
105.4,-102.2
105.425,-105.0
105.45,-109.0
105.475,-104.0
105.5,-106.8
105.525,-101.8
105.55,-103.9
105.575,-106.7
105.6,-105.4
105.625,-105.6
105.65,-103.7
105.675,-104.9
105.7,-105.5
105.725,-104.8
105.75,-103.7
105.775,-104.2
105.8,-106.5
105.825,-104.3
105.85,-104.1
105.875,-99.6
105.9,-105.5
105.925,-103.1
105.95,-107.7
105.975,-104.5
106.0,-109.1
106.025,-103.1
106.05,-106.7
106.075,-105.4
106.1,-102.6
106.125,-106.7
106.15,-101.6
106.175,-104.8
106.2,-106.4
106.225,-107.4
106.25,-106.5
106.275,-110.2
106.3,-110.4
106.325,-102.5
106.35,-107.4
106.375,-101.8
106.4,-105.8
106.425,-108.4
106.45,-107.1
106.475,-107.6
106.5,-101.1
106.525,-97.4
106.55,-101.9
106.575,-103.9
106.6,-102.7
106.625,-108.9
106.65,-106.9
106.675,-106.7
106.7,-105.3
106.725,-106.8
106.75,-106.6
106.775,-100.0
106.8,-101.2
106.825,-105.1
106.85,-107.8
106.875,-97.3
106.9,-103.6
106.925,-108.4
106.95,-101.6
106.975,-96.3
107.0,-100.5
107.025,-104.7
107.05,-106.3
107.075,-99.7
107.1,-103.3
107.125,-99.6
107.15,-101.7
107.175,-95.9
107.2,-97.3
107.225,-95.3
107.25,-95.3
107.275,-98.6
107.3,-100.7
107.325,-105.9
107.35,-96.8
107.375,-94.9
107.4,-94.7
107.425,-103.0
107.45,-97.3
107.475,-97.7
107.5,-93.8
107.525,-103.1
107.55,-103.0
107.575,-99.6
107.6,-99.4
107.625,-103.5
107.65,-98.5
107.675,-102.0
107.7,-98.4
107.725,-98.5
107.75,-106.4
107.775,-99.0
107.8,-94.0
107.825,-97.7
107.85,-93.5
107.875,-95.1
107.9,-98.1
107.925,-93.7
107.95,-94.9
107.975,-93.3
108.0,-95.8
108.025,-101.0
108.05,-99.2
108.075,-97.9
108.1,-100.3
108.125,-98.4
108.15,-98.6
108.175,-94.6
108.2,-98.3
108.225,-96.5
108.25,-98.8
108.275,-96.4
108.3,-99.8
108.325,-95.5
108.35,-92.9
108.375,-98.3
108.4,-93.0
108.425,-93.9
108.45,-95.6
108.475,-89.4
108.5,-91.1
108.525,-91.0
108.55,-92.1
108.575,-91.5
108.6,-89.9
108.625,-94.1
108.65,-89.6
108.675,-91.9
108.7,-99.7
108.725,-93.9
108.75,-96.5
108.775,-94.9
108.8,-97.5
108.825,-96.4
108.85,-98.3
108.875,-96.1
108.9,-99.2
108.925,-96.6
108.95,-97.1
108.975,-94.8
109.0,-99.2
